#Collected Data-36
#Intensity_unit=counts
#Attenuator_coefficient=1.000000
20.0000 19.0000
20.0100 23.0000
20.0200 17.0000
20.0300 20.0000
20.0400 30.0000
20.0500 25.0000
20.0600 34.0000
20.0700 21.0000
20.0800 14.0000
20.0900 22.0000
20.1000 21.0000
20.1100 26.0000
20.1200 23.0000
20.1300 18.0000
20.1400 27.0000
20.1500 28.0000
20.1600 31.0000
20.1700 33.0000
20.1800 19.0000
20.1900 21.0000
20.2000 18.0000
20.2100 28.0000
20.2200 22.0000
20.2300 18.0000
20.2400 28.0000
20.2500 29.0000
20.2600 25.0000
20.2700 27.0000
20.2800 23.0000
20.2900 28.0000
20.3000 12.0000
20.3100 35.0000
20.3200 26.0000
20.3300 19.0000
20.3400 23.0000
20.3500 27.0000
20.3600 18.0000
20.3700 32.0000
20.3800 21.0000
20.3900 26.0000
20.4000 19.0000
20.4100 18.0000
20.4200 17.0000
20.4300 26.0000
20.4400 19.0000
20.4500 23.0000
20.4600 24.0000
20.4700 21.0000
20.4800 20.0000
20.4900 15.0000
20.5000 16.0000
20.5100 21.0000
20.5200 24.0000
20.5300 24.0000
20.5400 20.0000
20.5500 35.0000
20.5600 25.0000
20.5700 20.0000
20.5800 17.0000
20.5900 12.0000
20.6000 19.0000
20.6100 26.0000
20.6200 26.0000
20.6300 22.0000
20.6400 26.0000
20.6500 23.0000
20.6600 22.0000
20.6700 22.0000
20.6800 20.0000
20.6900 24.0000
20.7000 26.0000
20.7100 20.0000
20.7200 31.0000
20.7300 30.0000
20.7400 23.0000
20.7500 23.0000
20.7600 25.0000
20.7700 25.0000
20.7800 19.0000
20.7900 17.0000
20.8000 21.0000
20.8100 29.0000
20.8200 25.0000
20.8300 19.0000
20.8400 16.0000
20.8500 25.0000
20.8600 20.0000
20.8700 28.0000
20.8800 19.0000
20.8900 13.0000
20.9000 18.0000
20.9100 18.0000
20.9200 27.0000
20.9300 28.0000
20.9400 29.0000
20.9500 24.0000
20.9600 24.0000
20.9700 30.0000
20.9800 24.0000
20.9900 16.0000
21.0000 18.0000
21.0100 15.0000
21.0200 24.0000
21.0300 26.0000
21.0400 20.0000
21.0500 19.0000
21.0600 23.0000
21.0700 15.0000
21.0800 17.0000
21.0900 22.0000
21.1000 21.0000
21.1100 27.0000
21.1200 20.0000
21.1300 15.0000
21.1400 28.0000
21.1500 21.0000
21.1600 26.0000
21.1700 19.0000
21.1800 22.0000
21.1900 15.0000
21.2000 24.0000
21.2100 21.0000
21.2200 19.0000
21.2300 27.0000
21.2400 25.0000
21.2500 18.0000
21.2600 26.0000
21.2700 26.0000
21.2800 20.0000
21.2900 14.0000
21.3000 15.0000
21.3100 21.0000
21.3200 18.0000
21.3300 18.0000
21.3400 19.0000
21.3500 23.0000
21.3600 19.0000
21.3700 17.0000
21.3800 26.0000
21.3900 23.0000
21.4000 29.0000
21.4100 24.0000
21.4200 22.0000
21.4300 24.0000
21.4400 23.0000
21.4500 28.0000
21.4600 19.0000
21.4700 23.0000
21.4800 25.0000
21.4900 19.0000
21.5000 20.0000
21.5100 26.0000
21.5200 26.0000
21.5300 16.0000
21.5400 26.0000
21.5500 18.0000
21.5600 24.0000
21.5700 25.0000
21.5800 17.0000
21.5900 19.0000
21.6000 15.0000
21.6100 23.0000
21.6200 18.0000
21.6300 25.0000
21.6400 23.0000
21.6500 26.0000
21.6600 20.0000
21.6700 20.0000
21.6800 23.0000
21.6900 18.0000
21.7000 23.0000
21.7100 23.0000
21.7200 17.0000
21.7300 20.0000
21.7400 15.0000
21.7500 23.0000
21.7600 16.0000
21.7700 23.0000
21.7800 19.0000
21.7900 22.0000
21.8000 18.0000
21.8100 24.0000
21.8200 23.0000
21.8300 20.0000
21.8400 27.0000
21.8500 27.0000
21.8600 29.0000
21.8700 17.0000
21.8800 18.0000
21.8900 27.0000
21.9000 18.0000
21.9100 19.0000
21.9200 18.0000
21.9300 21.0000
21.9400 27.0000
21.9500 21.0000
21.9600 24.0000
21.9700 23.0000
21.9800 22.0000
21.9900 22.0000
22.0000 22.0000
22.0100 16.0000
22.0200 17.0000
22.0300 27.0000
22.0400 33.0000
22.0500 22.0000
22.0600 20.0000
22.0700 26.0000
22.0800 19.0000
22.0900 22.0000
22.1000 23.0000
22.1100 14.0000
22.1200 12.0000
22.1300 16.0000
22.1400 30.0000
22.1500 18.0000
22.1600 26.0000
22.1700 13.0000
22.1800 13.0000
22.1900 13.0000
22.2000 19.0000
22.2100 24.0000
22.2200 19.0000
22.2300 19.0000
22.2400 23.0000
22.2500 19.0000
22.2600 16.0000
22.2700 22.0000
22.2800 19.0000
22.2900 21.0000
22.3000 24.0000
22.3100 22.0000
22.3200 15.0000
22.3300 18.0000
22.3400 18.0000
22.3500 17.0000
22.3600 18.0000
22.3700 19.0000
22.3800 19.0000
22.3900 21.0000
22.4000 19.0000
22.4100 20.0000
22.4200 21.0000
22.4300 16.0000
22.4400 16.0000
22.4500 17.0000
22.4600 20.0000
22.4700 17.0000
22.4800 21.0000
22.4900 25.0000
22.5000 18.0000
22.5100 19.0000
22.5200 17.0000
22.5300 16.0000
22.5400 17.0000
22.5500 28.0000
22.5600 23.0000
22.5700 22.0000
22.5800 20.0000
22.5900 10.0000
22.6000 21.0000
22.6100 29.0000
22.6200 20.0000
22.6300 23.0000
22.6400 21.0000
22.6500 24.0000
22.6600 29.0000
22.6700 22.0000
22.6800 17.0000
22.6900 17.0000
22.7000 26.0000
22.7100 19.0000
22.7200 21.0000
22.7300 17.0000
22.7400 25.0000
22.7500 21.0000
22.7600 15.0000
22.7700 19.0000
22.7800 25.0000
22.7900 18.0000
22.8000 18.0000
22.8100 18.0000
22.8200 13.0000
22.8300 28.0000
22.8400 22.0000
22.8500 16.0000
22.8600 11.0000
22.8700 23.0000
22.8800 22.0000
22.8900 16.0000
22.9000 12.0000
22.9100 24.0000
22.9200 18.0000
22.9300 24.0000
22.9400 18.0000
22.9500 23.0000
22.9600 20.0000
22.9700 24.0000
22.9800 22.0000
22.9900 21.0000
23.0000 19.0000
23.0100 23.0000
23.0200 21.0000
23.0300 17.0000
23.0400 24.0000
23.0500 24.0000
23.0600 10.0000
23.0700 17.0000
23.0800 17.0000
23.0900 14.0000
23.1000 23.0000
23.1100 21.0000
23.1200 21.0000
23.1300 20.0000
23.1400 23.0000
23.1500 21.0000
23.1600 16.0000
23.1700 21.0000
23.1800 24.0000
23.1900 28.0000
23.2000 18.0000
23.2100 22.0000
23.2200 19.0000
23.2300 22.0000
23.2400 23.0000
23.2500 21.0000
23.2600 16.0000
23.2700 17.0000
23.2800 19.0000
23.2900 15.0000
23.3000 14.0000
23.3100 17.0000
23.3200 18.0000
23.3300 21.0000
23.3400 23.0000
23.3500 19.0000
23.3600 15.0000
23.3700 18.0000
23.3800 16.0000
23.3900 18.0000
23.4000 19.0000
23.4100 19.0000
23.4200 19.0000
23.4300 21.0000
23.4400 22.0000
23.4500 19.0000
23.4600 14.0000
23.4700 13.0000
23.4800 13.0000
23.4900 20.0000
23.5000 19.0000
23.5100 16.0000
23.5200 29.0000
23.5300 16.0000
23.5400 19.0000
23.5500 17.0000
23.5600 12.0000
23.5700 26.0000
23.5800 18.0000
23.5900 18.0000
23.6000 19.0000
23.6100 10.0000
23.6200 12.0000
23.6300 20.0000
23.6400 23.0000
23.6500 14.0000
23.6600 24.0000
23.6700 20.0000
23.6800 17.0000
23.6900 16.0000
23.7000 23.0000
23.7100 19.0000
23.7200 13.0000
23.7300 19.0000
23.7400 25.0000
23.7500 21.0000
23.7600 23.0000
23.7700 24.0000
23.7800 18.0000
23.7900 28.0000
23.8000 24.0000
23.8100 21.0000
23.8200 19.0000
23.8300 20.0000
23.8400 21.0000
23.8500 25.0000
23.8600 27.0000
23.8700 24.0000
23.8800 16.0000
23.8900 18.0000
23.9000 18.0000
23.9100 19.0000
23.9200 27.0000
23.9300 21.0000
23.9400 19.0000
23.9500 13.0000
23.9600 19.0000
23.9700 15.0000
23.9800 15.0000
23.9900 16.0000
24.0000 20.0000
24.0100 20.0000
24.0200 15.0000
24.0300 10.0000
24.0400 16.0000
24.0500 18.0000
24.0600 22.0000
24.0700 19.0000
24.0800 15.0000
24.0900 19.0000
24.1000 20.0000
24.1100 18.0000
24.1200 13.0000
24.1300 13.0000
24.1400 14.0000
24.1500 17.0000
24.1600 15.0000
24.1700 18.0000
24.1800 19.0000
24.1900 19.0000
24.2000 7.0000
24.2100 14.0000
24.2200 20.0000
24.2300 19.0000
24.2400 23.0000
24.2500 22.0000
24.2600 20.0000
24.2700 16.0000
24.2800 22.0000
24.2900 21.0000
24.3000 19.0000
24.3100 19.0000
24.3200 14.0000
24.3300 22.0000
24.3400 16.0000
24.3500 17.0000
24.3600 17.0000
24.3700 23.0000
24.3800 17.0000
24.3900 15.0000
24.4000 15.0000
24.4100 14.0000
24.4200 16.0000
24.4300 22.0000
24.4400 25.0000
24.4500 23.0000
24.4600 17.0000
24.4700 20.0000
24.4800 22.0000
24.4900 25.0000
24.5000 19.0000
24.5100 14.0000
24.5200 15.0000
24.5300 15.0000
24.5400 20.0000
24.5500 12.0000
24.5600 20.0000
24.5700 17.0000
24.5800 20.0000
24.5900 11.0000
24.6000 17.0000
24.6100 24.0000
24.6200 14.0000
24.6300 15.0000
24.6400 17.0000
24.6500 18.0000
24.6600 10.0000
24.6700 21.0000
24.6800 16.0000
24.6900 18.0000
24.7000 15.0000
24.7100 11.0000
24.7200 12.0000
24.7300 16.0000
24.7400 16.0000
24.7500 17.0000
24.7600 21.0000
24.7700 18.0000
24.7800 13.0000
24.7900 15.0000
24.8000 18.0000
24.8100 16.0000
24.8200 9.0000
24.8300 17.0000
24.8400 11.0000
24.8500 25.0000
24.8600 14.0000
24.8700 15.0000
24.8800 20.0000
24.8900 24.0000
24.9000 19.0000
24.9100 19.0000
24.9200 20.0000
24.9300 15.0000
24.9400 16.0000
24.9500 17.0000
24.9600 16.0000
24.9700 20.0000
24.9800 14.0000
24.9900 16.0000
25.0000 15.0000
25.0100 17.0000
25.0200 14.0000
25.0300 17.0000
25.0400 20.0000
25.0500 12.0000
25.0600 14.0000
25.0700 14.0000
25.0800 23.0000
25.0900 11.0000
25.1000 13.0000
25.1100 9.0000
25.1200 16.0000
25.1300 21.0000
25.1400 19.0000
25.1500 10.0000
25.1600 14.0000
25.1700 9.0000
25.1800 18.0000
25.1900 17.0000
25.2000 13.0000
25.2100 24.0000
25.2200 17.0000
25.2300 15.0000
25.2400 16.0000
25.2500 20.0000
25.2600 19.0000
25.2700 18.0000
25.2800 20.0000
25.2900 15.0000
25.3000 19.0000
25.3100 20.0000
25.3200 16.0000
25.3300 13.0000
25.3400 11.0000
25.3500 20.0000
25.3600 15.0000
25.3700 18.0000
25.3800 24.0000
25.3900 24.0000
25.4000 19.0000
25.4100 10.0000
25.4200 15.0000
25.4300 14.0000
25.4400 13.0000
25.4500 13.0000
25.4600 14.0000
25.4700 18.0000
25.4800 16.0000
25.4900 16.0000
25.5000 15.0000
25.5100 22.0000
25.5200 19.0000
25.5300 18.0000
25.5400 16.0000
25.5500 14.0000
25.5600 14.0000
25.5700 15.0000
25.5800 23.0000
25.5900 16.0000
25.6000 17.0000
25.6100 25.0000
25.6200 21.0000
25.6300 13.0000
25.6400 14.0000
25.6500 20.0000
25.6600 20.0000
25.6700 14.0000
25.6800 20.0000
25.6900 20.0000
25.7000 18.0000
25.7100 16.0000
25.7200 15.0000
25.7300 14.0000
25.7400 18.0000
25.7500 17.0000
25.7600 12.0000
25.7700 17.0000
25.7800 13.0000
25.7900 16.0000
25.8000 15.0000
25.8100 19.0000
25.8200 16.0000
25.8300 21.0000
25.8400 24.0000
25.8500 19.0000
25.8600 17.0000
25.8700 10.0000
25.8800 14.0000
25.8900 19.0000
25.9000 21.0000
25.9100 19.0000
25.9200 15.0000
25.9300 15.0000
25.9400 15.0000
25.9500 15.0000
25.9600 13.0000
25.9700 12.0000
25.9800 15.0000
25.9900 24.0000
26.0000 16.0000
26.0100 13.0000
26.0200 10.0000
26.0300 18.0000
26.0400 13.0000
26.0500 15.0000
26.0600 20.0000
26.0700 26.0000
26.0800 16.0000
26.0900 11.0000
26.1000 18.0000
26.1100 22.0000
26.1200 15.0000
26.1300 21.0000
26.1400 20.0000
26.1500 16.0000
26.1600 19.0000
26.1700 17.0000
26.1800 9.0000
26.1900 19.0000
26.2000 16.0000
26.2100 18.0000
26.2200 10.0000
26.2300 15.0000
26.2400 14.0000
26.2500 10.0000
26.2600 13.0000
26.2700 16.0000
26.2800 8.0000
26.2900 13.0000
26.3000 13.0000
26.3100 16.0000
26.3200 9.0000
26.3300 16.0000
26.3400 12.0000
26.3500 19.0000
26.3600 15.0000
26.3700 14.0000
26.3800 19.0000
26.3900 12.0000
26.4000 23.0000
26.4100 14.0000
26.4200 17.0000
26.4300 20.0000
26.4400 18.0000
26.4500 20.0000
26.4600 13.0000
26.4700 14.0000
26.4800 20.0000
26.4900 14.0000
26.5000 14.0000
26.5100 11.0000
26.5200 19.0000
26.5300 12.0000
26.5400 12.0000
26.5500 14.0000
26.5600 16.0000
26.5700 17.0000
26.5800 17.0000
26.5900 13.0000
26.6000 18.0000
26.6100 11.0000
26.6200 17.0000
26.6300 12.0000
26.6400 16.0000
26.6500 10.0000
26.6600 14.0000
26.6700 23.0000
26.6800 19.0000
26.6900 12.0000
26.7000 22.0000
26.7100 15.0000
26.7200 13.0000
26.7300 9.0000
26.7400 15.0000
26.7500 18.0000
26.7600 10.0000
26.7700 11.0000
26.7800 10.0000
26.7900 17.0000
26.8000 18.0000
26.8100 20.0000
26.8200 18.0000
26.8300 15.0000
26.8400 25.0000
26.8500 13.0000
26.8600 12.0000
26.8700 14.0000
26.8800 18.0000
26.8900 12.0000
26.9000 14.0000
26.9100 14.0000
26.9200 19.0000
26.9300 14.0000
26.9400 12.0000
26.9500 13.0000
26.9600 14.0000
26.9700 17.0000
26.9800 14.0000
26.9900 10.0000
27.0000 23.0000
27.0100 18.0000
27.0200 18.0000
27.0300 16.0000
27.0400 17.0000
27.0500 16.0000
27.0600 14.0000
27.0700 17.0000
27.0800 17.0000
27.0900 19.0000
27.1000 19.0000
27.1100 13.0000
27.1200 13.0000
27.1300 9.0000
27.1400 13.0000
27.1500 22.0000
27.1600 20.0000
27.1700 13.0000
27.1800 15.0000
27.1900 15.0000
27.2000 7.0000
27.2100 15.0000
27.2200 18.0000
27.2300 12.0000
27.2400 11.0000
27.2500 17.0000
27.2600 12.0000
27.2700 8.0000
27.2800 16.0000
27.2900 15.0000
27.3000 16.0000
27.3100 15.0000
27.3200 16.0000
27.3300 16.0000
27.3400 18.0000
27.3500 20.0000
27.3600 22.0000
27.3700 12.0000
27.3800 8.0000
27.3900 18.0000
27.4000 14.0000
27.4100 14.0000
27.4200 12.0000
27.4300 8.0000
27.4400 13.0000
27.4500 8.0000
27.4600 8.0000
27.4700 16.0000
27.4800 10.0000
27.4900 22.0000
27.5000 13.0000
27.5100 12.0000
27.5200 14.0000
27.5300 13.0000
27.5400 16.0000
27.5500 19.0000
27.5600 7.0000
27.5700 9.0000
27.5800 10.0000
27.5900 12.0000
27.6000 8.0000
27.6100 20.0000
27.6200 18.0000
27.6300 17.0000
27.6400 12.0000
27.6500 10.0000
27.6600 8.0000
27.6700 9.0000
27.6800 9.0000
27.6900 14.0000
27.7000 10.0000
27.7100 14.0000
27.7200 16.0000
27.7300 13.0000
27.7400 9.0000
27.7500 11.0000
27.7600 12.0000
27.7700 15.0000
27.7800 15.0000
27.7900 13.0000
27.8000 18.0000
27.8100 6.0000
27.8200 10.0000
27.8300 13.0000
27.8400 15.0000
27.8500 14.0000
27.8600 12.0000
27.8700 11.0000
27.8800 17.0000
27.8900 21.0000
27.9000 19.0000
27.9100 18.0000
27.9200 14.0000
27.9300 15.0000
27.9400 12.0000
27.9500 10.0000
27.9600 5.0000
27.9700 5.0000
27.9800 9.0000
27.9900 8.0000
28.0000 14.0000
28.0100 16.0000
28.0200 12.0000
28.0300 18.0000
28.0400 18.0000
28.0500 10.0000
28.0600 17.0000
28.0700 12.0000
28.0800 17.0000
28.0900 9.0000
28.1000 9.0000
28.1100 13.0000
28.1200 14.0000
28.1300 15.0000
28.1400 16.0000
28.1500 17.0000
28.1600 13.0000
28.1700 9.0000
28.1800 11.0000
28.1900 15.0000
28.2000 19.0000
28.2100 13.0000
28.2200 17.0000
28.2300 13.0000
28.2400 11.0000
28.2500 13.0000
28.2600 9.0000
28.2700 10.0000
28.2800 11.0000
28.2900 9.0000
28.3000 10.0000
28.3100 14.0000
28.3200 15.0000
28.3300 11.0000
28.3400 17.0000
28.3500 18.0000
28.3600 13.0000
28.3700 11.0000
28.3800 13.0000
28.3900 12.0000
28.4000 10.0000
28.4100 11.0000
28.4200 10.0000
28.4300 11.0000
28.4400 8.0000
28.4500 9.0000
28.4600 8.0000
28.4700 13.0000
28.4800 14.0000
28.4900 8.0000
28.5000 12.0000
28.5100 12.0000
28.5200 11.0000
28.5300 15.0000
28.5400 9.0000
28.5500 9.0000
28.5600 7.0000
28.5700 9.0000
28.5800 10.0000
28.5900 11.0000
28.6000 15.0000
28.6100 14.0000
28.6200 13.0000
28.6300 7.0000
28.6400 10.0000
28.6500 14.0000
28.6600 13.0000
28.6700 10.0000
28.6800 10.0000
28.6900 11.0000
28.7000 21.0000
28.7100 11.0000
28.7200 14.0000
28.7300 13.0000
28.7400 10.0000
28.7500 17.0000
28.7600 15.0000
28.7700 11.0000
28.7800 11.0000
28.7900 10.0000
28.8000 12.0000
28.8100 16.0000
28.8200 16.0000
28.8300 13.0000
28.8400 13.0000
28.8500 15.0000
28.8600 15.0000
28.8700 13.0000
28.8800 11.0000
28.8900 14.0000
28.9000 9.0000
28.9100 14.0000
28.9200 19.0000
28.9300 13.0000
28.9400 15.0000
28.9500 9.0000
28.9600 13.0000
28.9700 13.0000
28.9800 10.0000
28.9900 7.0000
29.0000 6.0000
29.0100 12.0000
29.0200 11.0000
29.0300 7.0000
29.0400 8.0000
29.0500 13.0000
29.0600 11.0000
29.0700 11.0000
29.0800 15.0000
29.0900 11.0000
29.1000 15.0000
29.1100 12.0000
29.1200 13.0000
29.1300 15.0000
29.1400 17.0000
29.1500 13.0000
29.1600 14.0000
29.1700 13.0000
29.1800 17.0000
29.1900 14.0000
29.2000 16.0000
29.2100 14.0000
29.2200 14.0000
29.2300 16.0000
29.2400 13.0000
29.2500 12.0000
29.2600 12.0000
29.2700 10.0000
29.2800 15.0000
29.2900 14.0000
29.3000 13.0000
29.3100 11.0000
29.3200 12.0000
29.3300 9.0000
29.3400 16.0000
29.3500 13.0000
29.3600 26.0000
29.3700 18.0000
29.3800 16.0000
29.3900 22.0000
29.4000 15.0000
29.4100 19.0000
29.4200 16.0000
29.4300 13.0000
29.4400 12.0000
29.4500 12.0000
29.4600 12.0000
29.4700 17.0000
29.4800 10.0000
29.4900 9.0000
29.5000 9.0000
29.5100 13.0000
29.5200 8.0000
29.5300 15.0000
29.5400 10.0000
29.5500 10.0000
29.5600 13.0000
29.5700 15.0000
29.5800 15.0000
29.5900 8.0000
29.6000 8.0000
29.6100 9.0000
29.6200 11.0000
29.6300 13.0000
29.6400 12.0000
29.6500 7.0000
29.6600 11.0000
29.6700 9.0000
29.6800 14.0000
29.6900 12.0000
29.7000 12.0000
29.7100 13.0000
29.7200 8.0000
29.7300 13.0000
29.7400 11.0000
29.7500 10.0000
29.7600 12.0000
29.7700 12.0000
29.7800 13.0000
29.7900 12.0000
29.8000 12.0000
29.8100 11.0000
29.8200 13.0000
29.8300 6.0000
29.8400 10.0000
29.8500 13.0000
29.8600 9.0000
29.8700 12.0000
29.8800 12.0000
29.8900 13.0000
29.9000 4.0000
29.9100 14.0000
29.9200 10.0000
29.9300 8.0000
29.9400 15.0000
29.9500 13.0000
29.9600 12.0000
29.9700 14.0000
29.9800 10.0000
29.9900 18.0000
30.0000 18.0000
30.0100 12.0000
30.0200 14.0000
30.0300 11.0000
30.0400 15.0000
30.0500 7.0000
30.0600 7.0000
30.0700 10.0000
30.0800 11.0000
30.0900 10.0000
30.1000 8.0000
30.1100 12.0000
30.1200 13.0000
30.1300 12.0000
30.1400 12.0000
30.1500 6.0000
30.1600 12.0000
30.1700 16.0000
30.1800 10.0000
30.1900 17.0000
30.2000 11.0000
30.2100 10.0000
30.2200 9.0000
30.2300 15.0000
30.2400 10.0000
30.2500 7.0000
30.2600 16.0000
30.2700 7.0000
30.2800 16.0000
30.2900 10.0000
30.3000 12.0000
30.3100 12.0000
30.3200 5.0000
30.3300 8.0000
30.3400 12.0000
30.3500 8.0000
30.3600 14.0000
30.3700 14.0000
30.3800 10.0000
30.3900 10.0000
30.4000 16.0000
30.4100 9.0000
30.4200 8.0000
30.4300 10.0000
30.4400 10.0000
30.4500 13.0000
30.4600 13.0000
30.4700 14.0000
30.4800 11.0000
30.4900 6.0000
30.5000 10.0000
30.5100 14.0000
30.5200 12.0000
30.5300 20.0000
30.5400 8.0000
30.5500 11.0000
30.5600 10.0000
30.5700 12.0000
30.5800 8.0000
30.5900 7.0000
30.6000 13.0000
30.6100 9.0000
30.6200 9.0000
30.6300 9.0000
30.6400 7.0000
30.6500 11.0000
30.6600 8.0000
30.6700 10.0000
30.6800 5.0000
30.6900 13.0000
30.7000 7.0000
30.7100 8.0000
30.7200 12.0000
30.7300 13.0000
30.7400 18.0000
30.7500 8.0000
30.7600 9.0000
30.7700 12.0000
30.7800 9.0000
30.7900 5.0000
30.8000 12.0000
30.8100 8.0000
30.8200 9.0000
30.8300 12.0000
30.8400 9.0000
30.8500 9.0000
30.8600 7.0000
30.8700 9.0000
30.8800 16.0000
30.8900 8.0000
30.9000 13.0000
30.9100 11.0000
30.9200 6.0000
30.9300 11.0000
30.9400 12.0000
30.9500 8.0000
30.9600 14.0000
30.9700 13.0000
30.9800 9.0000
30.9900 15.0000
31.0000 11.0000
31.0100 12.0000
31.0200 12.0000
31.0300 12.0000
31.0400 9.0000
31.0500 13.0000
31.0600 12.0000
31.0700 9.0000
31.0800 11.0000
31.0900 8.0000
31.1000 12.0000
31.1100 13.0000
31.1200 11.0000
31.1300 15.0000
31.1400 8.0000
31.1500 13.0000
31.1600 8.0000
31.1700 13.0000
31.1800 12.0000
31.1900 8.0000
31.2000 9.0000
31.2100 10.0000
31.2200 7.0000
31.2300 10.0000
31.2400 10.0000
31.2500 11.0000
31.2600 5.0000
31.2700 8.0000
31.2800 6.0000
31.2900 11.0000
31.3000 7.0000
31.3100 10.0000
31.3200 12.0000
31.3300 4.0000
31.3400 9.0000
31.3500 11.0000
31.3600 12.0000
31.3700 14.0000
31.3800 16.0000
31.3900 13.0000
31.4000 10.0000
31.4100 15.0000
31.4200 8.0000
31.4300 13.0000
31.4400 10.0000
31.4500 9.0000
31.4600 11.0000
31.4700 9.0000
31.4800 12.0000
31.4900 9.0000
31.5000 19.0000
31.5100 9.0000
31.5200 14.0000
31.5300 11.0000
31.5400 13.0000
31.5500 13.0000
31.5600 9.0000
31.5700 12.0000
31.5800 14.0000
31.5900 8.0000
31.6000 8.0000
31.6100 11.0000
31.6200 12.0000
31.6300 10.0000
31.6400 9.0000
31.6500 9.0000
31.6600 9.0000
31.6700 11.0000
31.6800 7.0000
31.6900 7.0000
31.7000 14.0000
31.7100 9.0000
31.7200 11.0000
31.7300 13.0000
31.7400 11.0000
31.7500 8.0000
31.7600 8.0000
31.7700 12.0000
31.7800 9.0000
31.7900 11.0000
31.8000 13.0000
31.8100 10.0000
31.8200 15.0000
31.8300 9.0000
31.8400 9.0000
31.8500 9.0000
31.8600 13.0000
31.8700 11.0000
31.8800 12.0000
31.8900 9.0000
31.9000 5.0000
31.9100 5.0000
31.9200 12.0000
31.9300 9.0000
31.9400 17.0000
31.9500 10.0000
31.9600 7.0000
31.9700 11.0000
31.9800 9.0000
31.9900 9.0000
32.0000 10.0000
32.0100 13.0000
32.0200 12.0000
32.0300 15.0000
32.0400 10.0000
32.0500 10.0000
32.0600 12.0000
32.0700 10.0000
32.0800 10.0000
32.0900 15.0000
32.1000 5.0000
32.1100 10.0000
32.1200 7.0000
32.1300 16.0000
32.1400 10.0000
32.1500 13.0000
32.1600 10.0000
32.1700 9.0000
32.1800 11.0000
32.1900 12.0000
32.2000 9.0000
32.2100 10.0000
32.2200 13.0000
32.2300 16.0000
32.2400 10.0000
32.2500 12.0000
32.2600 11.0000
32.2700 11.0000
32.2800 4.0000
32.2900 4.0000
32.3000 6.0000
32.3100 16.0000
32.3200 14.0000
32.3300 9.0000
32.3400 10.0000
32.3500 10.0000
32.3600 12.0000
32.3700 13.0000
32.3800 8.0000
32.3900 11.0000
32.4000 13.0000
32.4100 14.0000
32.4200 12.0000
32.4300 9.0000
32.4400 12.0000
32.4500 10.0000
32.4600 15.0000
32.4700 12.0000
32.4800 10.0000
32.4900 11.0000
32.5000 9.0000
32.5100 7.0000
32.5200 13.0000
32.5300 13.0000
